# Study case: Modern Earth
# Diameter: 12742                # Diameter of the planet [km]
# Gravity: 9.81                  # Gravity at the surface of the atmosphere [m/s2]
# Star-distance: 1               # Planet-star distance [ua]
# Star-type: Sun                 # Host-star type
# Star-temperature: 5772         # Host-star temperature [K]
# Line opacities = H2O, CO2
# CIA opacities = H2O-H2O, H2O-N2, CO2-CO2, N2-N2
# Rayleigh opacities = N2, CO2, H2O
# Surface-temperature: 288.0     # Surface temperature [K]
# Surface-albedo: 0.32           # Surface albedo
# Surface-emissivity: 0.9        # Surface emissivity
# Surface Pressure (Pa) = 1e5
# Concentrations are volume mixing ratios
# LayerBottomAlt(km) LayerTopAlt(km)  Alt(km)    Pressure(Pa)  Temperature(K)     N2              CO2              H2O                      
        0.0000         0.0000         0.0000     0.101729E+06     288.00     0.983002E+00     0.393201E-03     0.166045E-01
        0.0000         0.4256         0.3013     0.982738E+05     286.63     0.983876E+00     0.393550E-03     0.157309E-01
        0.4256         0.7353         0.6012     0.949358E+05     285.25     0.984731E+00     0.393892E-03     0.148753E-01
        0.7353         1.0373         0.8995     0.917111E+05     283.86     0.985567E+00     0.394227E-03     0.140385E-01
        1.0373         1.3357         1.1962     0.885960E+05     282.45     0.986384E+00     0.394554E-03     0.132212E-01
        1.3357         1.6316         1.4914     0.855867E+05     281.02     0.987181E+00     0.394872E-03     0.124240E-01
        1.6316         1.9255         1.7850     0.826796E+05     279.57     0.987957E+00     0.395183E-03     0.116477E-01
        1.9255         2.2175         2.0771     0.798713E+05     278.11     0.988711E+00     0.395485E-03     0.108931E-01
        2.2175         2.5077         2.3675     0.771584E+05     276.62     0.989443E+00     0.395777E-03     0.101609E-01
        2.5077         2.7962         2.6563     0.745376E+05     275.12     0.990152E+00     0.396061E-03     0.945192E-02
        2.7962         3.0829         2.9434     0.720058E+05     273.59     0.990837E+00     0.396335E-03     0.876691E-02
        3.0829         3.3678         3.2289     0.695600E+05     272.04     0.991497E+00     0.396599E-03     0.810666E-02
        3.3678         3.6510         3.5127     0.671973E+05     270.47     0.992131E+00     0.396853E-03     0.747188E-02
        3.6510         3.9325         3.7948     0.649148E+05     268.87     0.992740E+00     0.397096E-03     0.686305E-02
        3.9325         4.2121         4.0752     0.627099E+05     267.25     0.993322E+00     0.397329E-03     0.628094E-02
        4.2121         4.4900         4.3537     0.605799E+05     265.59     0.993876E+00     0.397550E-03     0.572626E-02
        4.4900         4.7660         4.6305     0.585222E+05     263.91     0.994403E+00     0.397761E-03     0.519967E-02
        4.7660         5.0402         4.9055     0.565344E+05     262.20     0.994900E+00     0.397960E-03     0.470173E-02
        5.0402         5.3125         5.1786     0.546141E+05     260.47     0.995369E+00     0.398148E-03     0.423288E-02
        5.3125         5.5829         5.4499     0.527591E+05     258.70     0.995808E+00     0.398323E-03     0.379344E-02
        5.5829         5.8514         5.7192     0.509670E+05     256.90     0.996218E+00     0.398487E-03     0.338358E-02
        5.8514         6.1179         5.9866     0.492359E+05     255.07     0.996598E+00     0.398639E-03     0.300328E-02
        6.1179         6.3825         6.2521     0.475635E+05     253.22     0.996949E+00     0.398780E-03     0.265234E-02
        6.3825         6.6450         6.5156     0.459479E+05     251.33     0.997271E+00     0.398908E-03     0.233035E-02
        6.6450         6.9055         6.7770     0.443872E+05     249.42     0.997564E+00     0.399026E-03     0.203669E-02
        6.9055         7.1640         7.0365     0.428795E+05     247.49     0.997830E+00     0.399132E-03     0.177053E-02
        7.1640         7.4204         7.2939     0.414231E+05     245.53     0.998070E+00     0.399228E-03     0.153082E-02
        7.4204         7.6747         7.5492     0.400161E+05     243.55     0.998284E+00     0.399314E-03     0.131633E-02
        7.6747         7.9269         7.8024     0.386569E+05     241.52     0.998475E+00     0.399390E-03     0.112566E-02
        7.9269         8.1770         8.0534     0.373438E+05     239.52     0.998643E+00     0.399457E-03     0.957680E-03
        8.1770         8.4249         8.3024     0.360754E+05     237.48     0.998790E+00     0.399516E-03     0.810235E-03
        8.4249         8.6707         8.5492     0.348500E+05     235.43     0.998919E+00     0.399567E-03     0.681798E-03
        8.6707         8.9143         8.7939     0.336663E+05     233.36     0.999030E+00     0.399612E-03     0.570751E-03
        8.9143         9.1557         9.0364     0.325228E+05     231.27     0.999125E+00     0.399650E-03     0.475432E-03
        9.1557         9.3950         9.2767     0.314181E+05     229.18     0.999206E+00     0.399682E-03     0.394180E-03
        9.3950         9.6320         9.5148     0.303509E+05     227.08     0.999275E+00     0.399710E-03     0.325374E-03
        9.6320         9.8669         9.7507     0.293200E+05     224.99     0.999333E+00     0.399733E-03     0.267464E-03
        9.8669        10.0996         9.9844     0.283241E+05     222.90     0.999381E+00     0.399752E-03     0.219004E-03
       10.0996        10.3301        10.2160     0.273621E+05     220.82     0.999422E+00     0.399769E-03     0.178664E-03
       10.3301        10.5585        10.4455     0.264327E+05     218.75     0.999455E+00     0.399782E-03     0.145244E-03
       10.5585        10.7848        10.6728     0.255348E+05     216.70     0.999483E+00     0.399793E-03     0.117679E-03
       10.7848        11.0089        10.8979     0.246675E+05     214.67     0.999505E+00     0.399802E-03     0.950318E-04
       11.0089        11.2310        11.1210     0.238296E+05     212.67     0.999524E+00     0.399809E-03     0.764924E-04
       11.2310        11.4510        11.3420     0.230202E+05     210.68     0.999539E+00     0.399816E-03     0.613650E-04
       11.4510        11.6690        11.5610     0.222383E+05     208.72     0.999551E+00     0.399820E-03     0.490588E-04
       11.6690        11.8849        11.7780     0.214830E+05     206.78     0.999561E+00     0.399824E-03     0.390758E-04
       11.8849        12.0989        11.9929     0.207533E+05     204.86     0.999569E+00     0.399828E-03     0.309990E-04
       12.0989        12.3110        12.2059     0.200483E+05     202.97     0.999576E+00     0.399830E-03     0.244816E-04
       12.3110        12.5214        12.4169     0.193674E+05     201.10     0.999581E+00     0.399832E-03     0.192366E-04
       12.5214        12.7313        12.6268     0.187095E+05     200.00     0.999581E+00     0.399832E-03     0.192366E-04
       12.7313        12.9413        12.8367     0.180740E+05     200.00     0.999581E+00     0.399832E-03     0.192366E-04
       12.9413        13.1512        13.0467     0.174601E+05     200.00     0.999581E+00     0.399832E-03     0.192366E-04
       13.1512        13.3612        13.2566     0.168671E+05     200.00     0.999581E+00     0.399832E-03     0.192366E-04
       13.3612        13.5711        13.4665     0.162941E+05     200.00     0.999581E+00     0.399832E-03     0.192366E-04
       13.5711        13.7811        13.6765     0.157407E+05     200.00     0.999581E+00     0.399832E-03     0.192366E-04
       13.7811        13.9911        13.8865     0.152060E+05     200.00     0.999581E+00     0.399832E-03     0.192366E-04
       13.9911        14.2011        14.0965     0.146895E+05     200.00     0.999581E+00     0.399832E-03     0.192366E-04
       14.2011        14.4111        14.3065     0.141906E+05     200.00     0.999581E+00     0.399832E-03     0.192366E-04
       14.4111        14.6211        14.5165     0.137086E+05     200.00     0.999581E+00     0.399832E-03     0.192366E-04
       14.6211        14.8312        14.7265     0.132429E+05     200.00     0.999581E+00     0.399832E-03     0.192366E-04
       14.8312        15.0412        14.9366     0.127931E+05     200.00     0.999581E+00     0.399832E-03     0.192366E-04
       15.0412        15.2513        15.1466     0.123586E+05     200.00     0.999581E+00     0.399832E-03     0.192366E-04
       15.2513        15.4614        15.3567     0.119388E+05     200.00     0.999581E+00     0.399832E-03     0.192366E-04
       15.4614        15.6715        15.5668     0.115333E+05     200.00     0.999581E+00     0.399832E-03     0.192366E-04
       15.6715        15.8816        15.7769     0.111416E+05     200.00     0.999581E+00     0.399832E-03     0.192366E-04
       15.8816        16.0917        15.9870     0.107631E+05     200.00     0.999581E+00     0.399832E-03     0.192366E-04
       16.0917        16.3019        16.1971     0.103975E+05     200.00     0.999581E+00     0.399832E-03     0.192366E-04
       16.3019        16.5120        16.4073     0.100444E+05     200.00     0.999581E+00     0.399832E-03     0.192366E-04
       16.5120        16.7222        16.6174     0.970318E+04     200.00     0.999581E+00     0.399832E-03     0.192366E-04
       16.7222        16.9324        16.8276     0.937360E+04     200.00     0.999581E+00     0.399832E-03     0.192366E-04
       16.9324        17.1426        17.0378     0.905521E+04     200.00     0.999581E+00     0.399832E-03     0.192366E-04
       17.1426        17.3528        17.2480     0.874764E+04     200.00     0.999581E+00     0.399832E-03     0.192366E-04
       17.3528        17.5630        17.4582     0.845051E+04     200.00     0.999581E+00     0.399832E-03     0.192366E-04
       17.5630        17.7732        17.6684     0.816347E+04     200.00     0.999581E+00     0.399832E-03     0.192366E-04
       17.7732        17.9835        17.8787     0.788619E+04     200.00     0.999581E+00     0.399832E-03     0.192366E-04
       17.9835        18.1938        18.0889     0.761832E+04     200.00     0.999581E+00     0.399832E-03     0.192366E-04
       18.1938        18.4040        18.2992     0.735955E+04     200.00     0.999581E+00     0.399832E-03     0.192366E-04
       18.4040        18.6143        18.5095     0.710957E+04     200.00     0.999581E+00     0.399832E-03     0.192366E-04
       18.6143        18.8246        18.7198     0.686808E+04     200.00     0.999581E+00     0.399832E-03     0.192366E-04
       18.8246        19.0350        18.9301     0.663479E+04     200.00     0.999581E+00     0.399832E-03     0.192366E-04
       19.0350        19.2453        19.1404     0.640943E+04     200.00     0.999581E+00     0.399832E-03     0.192366E-04
       19.2453        19.4557        19.3508     0.619172E+04     200.00     0.999581E+00     0.399832E-03     0.192366E-04
       19.4557        19.6660        19.5611     0.598140E+04     200.00     0.999581E+00     0.399832E-03     0.192366E-04
       19.6660        19.8764        19.7715     0.577823E+04     200.00     0.999581E+00     0.399832E-03     0.192366E-04
       19.8764        20.0868        19.9819     0.558196E+04     200.00     0.999581E+00     0.399832E-03     0.192366E-04
       20.0868        20.2972        20.1923     0.539235E+04     200.00     0.999581E+00     0.399832E-03     0.192366E-04
       20.2972        20.5076        20.4027     0.520918E+04     200.00     0.999581E+00     0.399832E-03     0.192366E-04
       20.5076        20.7181        20.6131     0.503224E+04     200.00     0.999581E+00     0.399832E-03     0.192366E-04
       20.7181        20.9285        20.8236     0.486130E+04     200.00     0.999581E+00     0.399832E-03     0.192366E-04
       20.9285        21.1390        21.0340     0.469616E+04     200.00     0.999581E+00     0.399832E-03     0.192366E-04
       21.1390        21.3495        21.2445     0.453664E+04     200.00     0.999581E+00     0.399832E-03     0.192366E-04
       21.3495        21.5600        21.4550     0.438253E+04     200.00     0.999581E+00     0.399832E-03     0.192366E-04
       21.5600        21.7705        21.6655     0.423365E+04     200.00     0.999581E+00     0.399832E-03     0.192366E-04
       21.7705        21.9811        21.8760     0.408983E+04     200.00     0.999581E+00     0.399832E-03     0.192366E-04
       21.9811        22.1916        22.0866     0.395088E+04     200.00     0.999581E+00     0.399832E-03     0.192366E-04
       22.1916        22.4022        22.2972     0.381666E+04     200.00     0.999581E+00     0.399832E-03     0.192366E-04
       22.4022        22.6128        22.5078     0.368699E+04     200.00     0.999581E+00     0.399832E-03     0.192366E-04
       22.6128        22.8235        22.7184     0.356172E+04     200.00     0.999581E+00     0.399832E-03     0.192366E-04
       22.8235        23.0341        22.9290     0.344070E+04     200.00     0.999581E+00     0.399832E-03     0.192366E-04
       23.0341        23.2448        23.1397     0.332379E+04     200.00     0.999581E+00     0.399832E-03     0.192366E-04
       23.2448        23.4555        23.3504     0.321084E+04     200.00     0.999581E+00     0.399832E-03     0.192366E-04
       23.4555        23.6662        23.5611     0.310172E+04     200.00     0.999581E+00     0.399832E-03     0.192366E-04
       23.6662        23.8770        23.7719     0.299631E+04     200.00     0.999581E+00     0.399832E-03     0.192366E-04
       23.8770        24.0878        23.9826     0.289446E+04     200.00     0.999581E+00     0.399832E-03     0.192366E-04
       24.0878        24.2987        24.1935     0.279607E+04     200.00     0.999581E+00     0.399832E-03     0.192366E-04
       24.2987        24.5096        24.4043     0.270101E+04     200.00     0.999581E+00     0.399832E-03     0.192366E-04
       24.5096        24.7205        24.6152     0.260916E+04     200.00     0.999581E+00     0.399832E-03     0.192366E-04
       24.7205        24.9315        24.8262     0.252043E+04     200.00     0.999581E+00     0.399832E-03     0.192366E-04
       24.9315        25.1425        25.0372     0.243470E+04     200.00     0.999581E+00     0.399832E-03     0.192366E-04
       25.1425        25.3536        25.2483     0.235186E+04     200.00     0.999581E+00     0.399832E-03     0.192366E-04
       25.3536        25.5648        25.4594     0.227183E+04     200.00     0.999581E+00     0.399832E-03     0.192366E-04
       25.5648        25.7761        25.6706     0.219450E+04     200.00     0.999581E+00     0.399832E-03     0.192366E-04
       25.7761        25.9874        25.8819     0.211978E+04     200.00     0.999581E+00     0.399832E-03     0.192366E-04
       25.9874        26.1988        26.0933     0.204757E+04     200.00     0.999581E+00     0.399832E-03     0.192366E-04
       26.1988        26.4104        26.3048     0.197780E+04     200.00     0.999581E+00     0.399832E-03     0.192366E-04
       26.4104        26.6220        26.5164     0.191038E+04     200.00     0.999581E+00     0.399832E-03     0.192366E-04
       26.6220        26.8338        26.7281     0.184522E+04     200.00     0.999581E+00     0.399832E-03     0.192366E-04
       26.8338        27.0457        26.9400     0.178224E+04     200.00     0.999581E+00     0.399832E-03     0.192366E-04
       27.0457        27.2578        27.1520     0.172138E+04     200.00     0.999581E+00     0.399832E-03     0.192366E-04
       27.2578        27.4701        27.3641     0.166255E+04     200.00     0.999581E+00     0.399832E-03     0.192366E-04
       27.4701        27.6826        27.5765     0.160569E+04     200.00     0.999581E+00     0.399832E-03     0.192366E-04
       27.6826        27.8953        27.7891     0.155072E+04     200.00     0.999581E+00     0.399832E-03     0.192366E-04
       27.8953        28.1082        28.0019     0.149758E+04     200.00     0.999581E+00     0.399832E-03     0.192366E-04
       28.1082        28.3215        28.2150     0.144620E+04     200.00     0.999581E+00     0.399832E-03     0.192366E-04
       28.3215        28.5350        28.4283     0.139652E+04     200.00     0.999581E+00     0.399832E-03     0.192366E-04
       28.5350        28.7489        28.6420     0.134847E+04     200.00     0.999581E+00     0.399832E-03     0.192366E-04
       28.7489        28.9632        28.8561     0.130201E+04     200.00     0.999581E+00     0.399832E-03     0.192366E-04
       28.9632        29.1779        29.0706     0.125706E+04     200.00     0.999581E+00     0.399832E-03     0.192366E-04
       29.1779        29.3930        29.2855     0.121358E+04     200.00     0.999581E+00     0.399832E-03     0.192366E-04
       29.3930        29.6088        29.5010     0.117151E+04     200.00     0.999581E+00     0.399832E-03     0.192366E-04
       29.6088        29.8251        29.7170     0.113079E+04     200.00     0.999581E+00     0.399832E-03     0.192366E-04
       29.8251        30.0420        29.9336     0.109138E+04     200.00     0.999581E+00     0.399832E-03     0.192366E-04
       30.0420        30.2597        30.1509     0.105323E+04     200.00     0.999581E+00     0.399832E-03     0.192366E-04
       30.2597        30.4782        30.3690     0.101629E+04     200.00     0.999581E+00     0.399832E-03     0.192366E-04
       30.4782        30.6976        30.5879     0.980504E+03     200.00     0.999581E+00     0.399832E-03     0.192366E-04
       30.6976        30.9180        30.8078     0.945837E+03     200.00     0.999581E+00     0.399832E-03     0.192366E-04
       30.9180        31.1396        31.0287     0.912242E+03     200.00     0.999581E+00     0.399832E-03     0.192366E-04
       31.1396        31.3623        31.2508     0.879675E+03     200.00     0.999581E+00     0.399832E-03     0.192366E-04
       31.3623        31.5864        31.4742     0.848094E+03     200.00     0.999581E+00     0.399832E-03     0.192366E-04
       31.5864        31.8120        31.6990     0.817458E+03     200.00     0.999581E+00     0.399832E-03     0.192366E-04
       31.8120        32.0392        31.9253     0.787729E+03     200.00     0.999581E+00     0.399832E-03     0.192366E-04
       32.0392        32.2682        32.1534     0.758868E+03     200.00     0.999581E+00     0.399832E-03     0.192366E-04
       32.2682        32.4993        32.3835     0.730836E+03     200.00     0.999581E+00     0.399832E-03     0.192366E-04
       32.4993        32.7326        32.6156     0.703599E+03     200.00     0.999581E+00     0.399832E-03     0.192366E-04
       32.7326        32.9684        32.8501     0.677119E+03     200.00     0.999581E+00     0.399832E-03     0.192366E-04
       32.9684        33.2068        33.0871     0.651365E+03     200.00     0.999581E+00     0.399832E-03     0.192366E-04
       33.2068        33.4482        33.3270     0.626302E+03     200.00     0.999581E+00     0.399832E-03     0.192366E-04
       33.4482        33.6929        33.5700     0.601898E+03     200.00     0.999581E+00     0.399832E-03     0.192366E-04
       33.6929        33.9412        33.8164     0.578123E+03     200.00     0.999581E+00     0.399832E-03     0.192366E-04
       33.9412        34.1934        34.0665     0.554947E+03     200.00     0.999581E+00     0.399832E-03     0.192366E-04
       34.1934        34.4500        34.3208     0.532342E+03     200.00     0.999581E+00     0.399832E-03     0.192366E-04
       34.4500        34.7113        34.5797     0.510280E+03     200.00     0.999581E+00     0.399832E-03     0.192366E-04
       34.7113        34.9779        34.8435     0.488735E+03     200.00     0.999581E+00     0.399832E-03     0.192366E-04
       34.9779        35.2502        35.1128     0.467684E+03     200.00     0.999581E+00     0.399832E-03     0.192366E-04
       35.2502        35.5287        35.3881     0.447103E+03     200.00     0.999581E+00     0.399832E-03     0.192366E-04
       35.5287        35.8142        35.6699     0.426971E+03     200.00     0.999581E+00     0.399832E-03     0.192366E-04
       35.8142        36.1071        35.9590     0.407269E+03     200.00     0.999581E+00     0.399832E-03     0.192366E-04
       36.1071        36.4083        36.2559     0.387979E+03     200.00     0.999581E+00     0.399832E-03     0.192366E-04
       36.4083        36.7185        36.5614     0.369085E+03     200.00     0.999581E+00     0.399832E-03     0.192366E-04
       36.7185        37.0385        36.8762     0.350575E+03     200.00     0.999581E+00     0.399832E-03     0.192366E-04
       37.0385        37.3692        37.2014     0.332437E+03     200.00     0.999581E+00     0.399832E-03     0.192366E-04
       37.3692        37.7116        37.5377     0.314663E+03     200.00     0.999581E+00     0.399832E-03     0.192366E-04
       37.7116        38.0668        37.8863     0.297246E+03     200.00     0.999581E+00     0.399832E-03     0.192366E-04
       38.0668        38.4360        38.2482     0.280184E+03     200.00     0.999581E+00     0.399832E-03     0.192366E-04
       38.4360        38.8203        38.6246     0.263478E+03     200.00     0.999581E+00     0.399832E-03     0.192366E-04
       38.8203        39.2211        39.0169     0.247129E+03     200.00     0.999581E+00     0.399832E-03     0.192366E-04
       39.2211        39.6400        39.4264     0.231145E+03     200.00     0.999581E+00     0.399832E-03     0.192366E-04
       39.6400        40.0784        39.8547     0.215536E+03     200.00     0.999581E+00     0.399832E-03     0.192366E-04
       40.0784        40.5381        40.3034     0.200313E+03     200.00     0.999581E+00     0.399832E-03     0.192366E-04
       40.5381        41.0210        40.7743     0.185495E+03     200.00     0.999581E+00     0.399832E-03     0.192366E-04
       41.0210        41.5291        41.2693     0.171099E+03     200.00     0.999581E+00     0.399832E-03     0.192366E-04
       41.5291        42.0644        41.7905     0.157150E+03     200.00     0.999581E+00     0.399832E-03     0.192366E-04
       42.0644        42.6295        42.3402     0.143671E+03     200.00     0.999581E+00     0.399832E-03     0.192366E-04
       42.6295        43.2267        42.9207     0.130690E+03     200.00     0.999581E+00     0.399832E-03     0.192366E-04
       43.2267        43.8588        43.5348     0.118236E+03     200.00     0.999581E+00     0.399832E-03     0.192366E-04
       43.8588        44.5288        44.1852     0.106339E+03     200.00     0.999581E+00     0.399832E-03     0.192366E-04
       44.5288        45.2397        44.8750     0.950294E+02     200.00     0.999581E+00     0.399832E-03     0.192366E-04
       45.2397        45.9951        45.6074     0.843361E+02     200.00     0.999581E+00     0.399832E-03     0.192366E-04
       45.9951        46.7986        46.3861     0.742868E+02     200.00     0.999581E+00     0.399832E-03     0.192366E-04
       46.7986        47.6541        47.2147     0.649059E+02     200.00     0.999581E+00     0.399832E-03     0.192366E-04
       47.6541        48.5659        48.0975     0.562140E+02     200.00     0.999581E+00     0.399832E-03     0.192366E-04
       48.5659        49.5386        49.0388     0.482262E+02     200.00     0.999581E+00     0.399832E-03     0.192366E-04
       49.5386        50.5771        50.0434     0.409512E+02     200.00     0.999581E+00     0.399832E-03     0.192366E-04
       50.5771        51.6867        51.1164     0.343905E+02     200.00     0.999581E+00     0.399832E-03     0.192366E-04
       51.6867        52.8731        52.2633     0.285375E+02     200.00     0.999581E+00     0.399832E-03     0.192366E-04
       52.8731        54.1424        53.4900     0.233769E+02     200.00     0.999581E+00     0.399832E-03     0.192366E-04
       54.1424        55.5012        54.8028     0.188846E+02     200.00     0.999581E+00     0.399832E-03     0.192366E-04
       55.5012        56.9567        56.2086     0.150282E+02     200.00     0.999581E+00     0.399832E-03     0.192366E-04
       56.9567        58.5163        57.7147     0.117672E+02     200.00     0.999581E+00     0.399832E-03     0.192366E-04
       58.5163        60.1882        59.3290     0.905450E+01     200.00     0.999581E+00     0.399832E-03     0.192366E-04
       60.1882        61.9812        61.0599     0.683746E+01     200.00     0.999581E+00     0.399832E-03     0.192366E-04
       61.9812        63.9047        62.9165     0.505985E+01     200.00     0.999581E+00     0.399832E-03     0.192366E-04
       63.9047        65.9687        64.9085     0.366374E+01     200.00     0.999581E+00     0.399832E-03     0.192366E-04
       65.9687        68.1841        67.0463     0.259142E+01     200.00     0.999581E+00     0.399832E-03     0.192366E-04
       68.1841        70.5624        69.3412     0.178735E+01     200.00     0.999581E+00     0.399832E-03     0.192366E-04
       70.5624        73.1161        71.8052     0.119983E+01     200.00     0.999581E+00     0.399832E-03     0.192366E-04
       73.1161        75.8586        74.4511     0.782330E+00     200.00     0.999581E+00     0.399832E-03     0.192366E-04
       75.8586        78.8041        77.2927     0.494405E+00     200.00     0.999581E+00     0.399832E-03     0.192366E-04
       78.8041        81.9679        80.3449     0.302131E+00     200.00     0.999581E+00     0.399832E-03     0.192366E-04
       81.9679        85.3665        83.6236     0.178097E+00     200.00     0.999581E+00     0.399832E-03     0.192366E-04
       85.3665        88.9060        87.1457     0.101000E+00     200.00     0.999581E+00     0.399832E-03     0.192366E-04
